E_lab	E*/MeV	172Pt	173Pt	174Pt	175Pt	176Pt	177Pt	178Pt
333.550	16.0	0.000E+00	0.000E+00	0.000E+00	0.000E+00	0.262E-07	0.000E+00	0.370E-08
335.506	17.0	0.000E+00	0.000E+00	0.000E+00	0.000E+00	0.170E-06	0.000E+00	0.560E-07
337.463	18.0	0.000E+00	0.000E+00	0.000E+00	0.000E+00	0.104E-05	0.000E+00	0.687E-06
339.419	19.0	0.000E+00	0.000E+00	0.000E+00	0.000E+00	0.601E-05	0.000E+00	0.710E-05
341.376	20.0	0.000E+00	0.000E+00	0.000E+00	0.197E-07	0.331E-04	0.000E+00	0.627E-04
343.332	21.0	0.000E+00	0.000E+00	0.000E+00	0.594E-06	0.169E-03	0.000E+00	0.463E-03
345.289	22.0	0.000E+00	0.000E+00	0.000E+00	0.782E-05	0.745E-03	0.000E+00	0.267E-02
347.245	23.0	0.000E+00	0.000E+00	0.000E+00	0.633E-04	0.264E-02	0.722E-07	0.114E-01
349.202	24.0	0.000E+00	0.000E+00	0.000E+00	0.333E-03	0.738E-02	0.152E-05	0.360E-01
351.158	25.0	0.000E+00	0.000E+00	0.000E+00	0.131E-02	0.167E-01	0.187E-04	0.900E-01
353.115	26.0	0.000E+00	0.000E+00	0.000E+00	0.408E-02	0.318E-01	0.157E-03	0.189E+00
355.072	27.0	0.000E+00	0.000E+00	0.000E+00	0.107E-01	0.535E-01	0.971E-03	0.350E+00
357.028	28.0	0.000E+00	0.000E+00	0.000E+00	0.246E-01	0.810E-01	0.462E-02	0.585E+00
358.985	29.0	0.000E+00	0.000E+00	0.721E-06	0.501E-01	0.113E+00	0.176E-01	0.902E+00
360.941	30.0	0.000E+00	0.000E+00	0.861E-05	0.922E-01	0.145E+00	0.553E-01	0.130E+01
362.898	31.0	0.000E+00	0.000E+00	0.558E-04	0.156E+00	0.175E+00	0.147E+00	0.175E+01
364.854	32.0	0.000E+00	0.000E+00	0.249E-03	0.245E+00	0.198E+00	0.338E+00	0.223E+01
366.811	33.0	0.000E+00	0.000E+00	0.872E-03	0.359E+00	0.211E+00	0.680E+00	0.270E+01
368.767	34.0	0.000E+00	0.000E+00	0.255E-02	0.497E+00	0.213E+00	0.122E+01	0.311E+01
370.724	35.0	0.000E+00	0.000E+00	0.648E-02	0.651E+00	0.203E+00	0.199E+01	0.342E+01
372.680	36.0	0.000E+00	0.000E+00	0.146E-01	0.812E+00	0.185E+00	0.296E+01	0.359E+01
374.637	37.0	0.000E+00	0.000E+00	0.297E-01	0.964E+00	0.161E+00	0.410E+01	0.363E+01
376.593	38.0	0.000E+00	0.000E+00	0.549E-01	0.109E+01	0.137E+00	0.532E+01	0.352E+01
378.550	39.0	0.000E+00	0.000E+00	0.930E-01	0.119E+01	0.121E+00	0.655E+01	0.330E+01
380.506	40.0	0.000E+00	0.000E+00	0.146E+00	0.124E+01	0.125E+00	0.769E+01	0.300E+01
382.463	41.0	0.000E+00	0.000E+00	0.214E+00	0.124E+01	0.166E+00	0.868E+01	0.264E+01
384.419	42.0	0.000E+00	0.212E-05	0.295E+00	0.119E+01	0.268E+00	0.946E+01	0.225E+01
386.376	43.0	0.000E+00	0.110E-04	0.385E+00	0.111E+01	0.457E+00	0.100E+02	0.187E+01
388.332	44.0	0.000E+00	0.426E-04	0.481E+00	0.999E+00	0.760E+00	0.103E+02	0.152E+01
390.289	45.0	0.000E+00	0.134E-03	0.576E+00	0.869E+00	0.120E+01	0.104E+02	0.121E+01
392.245	46.0	0.000E+00	0.364E-03	0.664E+00	0.733E+00	0.177E+01	0.102E+02	0.934E+00
394.202	47.0	0.000E+00	0.883E-03	0.739E+00	0.601E+00	0.253E+01	0.986E+01	0.710E+00
396.158	48.0	0.000E+00	0.195E-02	0.796E+00	0.480E+00	0.333E+01	0.931E+01	0.529E+00
398.115	49.0	0.000E+00	0.398E-02	0.833E+00	0.374E+00	0.419E+01	0.861E+01	0.388E+00
400.072	50.0	0.000E+00	0.750E-02	0.846E+00	0.287E+00	0.506E+01	0.782E+01	0.279E+00
402.028	51.0	0.000E+00	0.131E-01	0.836E+00	0.220E+00	0.591E+01	0.697E+01	0.199E+00
403.985	52.0	0.000E+00	0.213E-01	0.806E+00	0.177E+00	0.668E+01	0.610E+01	0.139E+00
405.941	53.0	0.135E-05	0.326E-01	0.757E+00	0.160E+00	0.735E+01	0.525E+01	0.964E-01
407.898	54.0	0.505E-05	0.471E-01	0.694E+00	0.177E+00	0.787E+01	0.444E+01	0.660E-01
409.854	55.0	0.160E-04	0.646E-01	0.622E+00	0.236E+00	0.823E+01	0.370E+01	0.448E-01
411.811	56.0	0.446E-04	0.847E-01	0.545E+00	0.346E+00	0.842E+01	0.303E+01	0.301E-01
413.767	57.0	0.112E-03	0.106E+00	0.468E+00	0.514E+00	0.844E+01	0.244E+01	0.200E-01
415.724	58.0	0.259E-03	0.129E+00	0.393E+00	0.743E+00	0.829E+01	0.194E+01	0.132E-01
417.680	59.0	0.550E-03	0.150E+00	0.324E+00	0.103E+01	0.798E+01	0.152E+01	0.868E-02
419.637	60.0	0.108E-02	0.170E+00	0.263E+00	0.138E+01	0.754E+01	0.118E+01	0.565E-02
421.593	61.0	0.199E-02	0.186E+00	0.210E+00	0.176E+01	0.700E+01	0.899E+00	0.365E-02
423.550	62.0	0.341E-02	0.197E+00	0.166E+00	0.217E+01	0.639E+01	0.678E+00	0.235E-02
425.506	63.0	0.548E-02	0.203E+00	0.132E+00	0.259E+01	0.573E+01	0.507E+00	0.150E-02
427.463	64.0	0.833E-02	0.204E+00	0.106E+00	0.264E+01	0.585E+01	0.374E+00	0.949E-03
429.419	65.0	0.120E-01	0.199E+00	0.906E-01	0.301E+01	0.517E+01	0.274E+00	0.598E-03
431.376	66.0	0.165E-01	0.190E+00	0.867E-01	0.336E+01	0.450E+01	0.199E+00	0.375E-03
433.332	67.0	0.219E-01	0.177E+00	0.953E-01	0.366E+01	0.386E+01	0.143E+00	0.234E-03
435.289	68.0	0.278E-01	0.161E+00	0.118E+00	0.390E+01	0.327E+01	0.102E+00	0.145E-03
437.245	69.0	0.342E-01	0.144E+00	0.157E+00	0.407E+01	0.273E+01	0.722E-01	0.889E-04
439.202	70.0	0.407E-01	0.126E+00	0.213E+00	0.418E+01	0.225E+01	0.508E-01	0.543E-04
441.158	71.0	0.470E-01	0.108E+00	0.286E+00	0.421E+01	0.184E+01	0.355E-01	0.329E-04
443.115	72.0	0.529E-01	0.913E-01	0.377E+00	0.416E+01	0.148E+01	0.246E-01	0.198E-04
445.072	73.0	0.579E-01	0.760E-01	0.484E+00	0.405E+01	0.108E+01	0.170E-01	0.118E-04
447.028	74.0	0.619E-01	0.624E-01	0.604E+00	0.388E+01	0.763E+00	0.116E-01	0.693E-05
448.985	75.0	0.646E-01	0.506E-01	0.734E+00	0.366E+01	0.526E+00	0.792E-02	0.399E-05
450.941	76.0	0.660E-01	0.406E-01	0.869E+00	0.340E+01	0.356E+00	0.537E-02	0.226E-05
452.898	77.0	0.659E-01	0.324E-01	0.100E+01	0.311E+01	0.239E+00	0.362E-02	0.117E-05
454.854	78.0	0.645E-01	0.260E-01	0.113E+01	0.281E+01	0.162E+00	0.243E-02	0.553E-06
456.811	79.0	0.619E-01	0.214E-01	0.125E+01	0.251E+01	0.111E+00	0.162E-02	0.116E-06
458.767	80.0	0.598E-01	0.210E-01	0.136E+01	0.220E+01	0.834E-01	0.108E-02	0.000E+00
